#temperature (K)# #Gibbs free energy (kJ / mol)#
100.0 -143365.169798
110.0 -143366.486758
120.0 -143367.822641
130.0 -143369.175866
140.0 -143370.545097
150.0 -143371.929187
160.0 -143373.327145
170.0 -143374.738102
180.0 -143376.161294
190.0 -143377.59604
200.0 -143379.041731
210.0 -143380.497819
220.0 -143381.963809
230.0 -143383.439251
240.0 -143384.923732
250.0 -143386.416878
260.0 -143387.91834
270.0 -143389.427798
280.0 -143390.944957
290.0 -143392.469542
300.0 -143394.001295
310.0 -143395.539978
320.0 -143397.085368
330.0 -143398.637254
340.0 -143400.19544
350.0 -143401.759741
360.0 -143403.329981
370.0 -143404.905996
380.0 -143406.48763
390.0 -143408.074734
400.0 -143409.667168
410.0 -143411.2648
420.0 -143412.867502
430.0 -143414.475154
440.0 -143416.08764
450.0 -143417.70485
460.0 -143419.32668
470.0 -143420.953029
480.0 -143422.583801
490.0 -143424.218904
500.0 -143425.858249
510.0 -143427.501752
520.0 -143429.14933
530.0 -143430.800906
540.0 -143432.456405
550.0 -143434.115753
560.0 -143435.77888
570.0 -143437.445719
580.0 -143439.116206
590.0 -143440.790276
600.0 -143442.467869
610.0 -143444.148927
620.0 -143445.833393
630.0 -143447.521211
640.0 -143449.212329
650.0 -143450.906695
660.0 -143452.604259
670.0 -143454.304973
680.0 -143456.008789
690.0 -143457.715662
700.0 -143459.425547
710.0 -143461.138402
720.0 -143462.854185
730.0 -143464.572855
740.0 -143466.294372
750.0 -143468.018699
760.0 -143469.745797
770.0 -143471.47563
780.0 -143473.208162
790.0 -143474.94336
800.0 -143476.681189
810.0 -143478.421616
820.0 -143480.164609
830.0 -143481.910138
840.0 -143483.65817
850.0 -143485.408678
860.0 -143487.161631
870.0 -143488.917001
880.0 -143490.67476
890.0 -143492.434881
900.0 -143494.197338
910.0 -143495.962104
920.0 -143497.729155
930.0 -143499.498465
940.0 -143501.270011
950.0 -143503.043767
960.0 -143504.819712
970.0 -143506.597822
980.0 -143508.378074
990.0 -143510.160448
1000.0 -143511.944922
1010.0 -143513.731474
1020.0 -143515.520084
1030.0 -143517.310733
1040.0 -143519.103399
1050.0 -143520.898064
1060.0 -143522.694708
1070.0 -143524.493314
1080.0 -143526.293862
1090.0 -143528.096335
1100.0 -143529.900715
1110.0 -143531.706985
1120.0 -143533.515127
1130.0 -143535.325125
1140.0 -143537.136963
1150.0 -143538.950624
1160.0 -143540.766093
1170.0 -143542.583353
1180.0 -143544.402391
1190.0 -143546.223189
1200.0 -143548.045735
1210.0 -143549.870012
1220.0 -143551.696008
1230.0 -143553.523707
1240.0 -143555.353097
1250.0 -143557.184162
1260.0 -143559.016891
1270.0 -143560.851269
1280.0 -143562.687284
1290.0 -143564.524923
1300.0 -143566.364173
1310.0 -143568.205022
1320.0 -143570.047458
1330.0 -143571.891469
1340.0 -143573.737042
1350.0 -143575.584167
1360.0 -143577.432832
1370.0 -143579.283025
1380.0 -143581.134735
1390.0 -143582.987951
1400.0 -143584.842663
1410.0 -143586.69886
1420.0 -143588.55653
1430.0 -143590.415665
1440.0 -143592.276253
1450.0 -143594.138285
1460.0 -143596.00175
1470.0 -143597.866639
1480.0 -143599.732942
1490.0 -143601.600649
1500.0 -143603.469752
1510.0 -143605.34024
1520.0 -143607.212105
1530.0 -143609.085337
1540.0 -143610.959928
1550.0 -143612.835869
1560.0 -143614.713151
1570.0 -143616.591765
1580.0 -143618.471703
1590.0 -143620.352957
1600.0 -143622.235518
1610.0 -143624.119378
1620.0 -143626.00453
1630.0 -143627.890964
1640.0 -143629.778674
1650.0 -143631.667651
1660.0 -143633.557888
1670.0 -143635.449377
1680.0 -143637.34211
1690.0 -143639.236081
1700.0 -143641.131282
1710.0 -143643.027706
1720.0 -143644.925345
1730.0 -143646.824193
1740.0 -143648.724242
1750.0 -143650.625486
1760.0 -143652.527918
1770.0 -143654.431531
1780.0 -143656.336318
1790.0 -143658.242273
1800.0 -143660.149389
1810.0 -143662.05766
1820.0 -143663.967079
1830.0 -143665.87764
1840.0 -143667.789338
1850.0 -143669.702164
1860.0 -143671.616115
1870.0 -143673.531183
1880.0 -143675.447363
1890.0 -143677.364648
1900.0 -143679.283033
1910.0 -143681.202512
1920.0 -143683.12308
1930.0 -143685.04473
1940.0 -143686.967457
1950.0 -143688.891255
1960.0 -143690.816119
1970.0 -143692.742044
1980.0 -143694.669025
1990.0 -143696.597054
2000.0 -143698.526129
2010.0 -143700.456243
2020.0 -143702.38739
2030.0 -143704.319567
2040.0 -143706.252768
2050.0 -143708.186988
2060.0 -143710.122222
2070.0 -143712.058465
2080.0 -143713.995712
2090.0 -143715.933958
2100.0 -143717.873199
2110.0 -143719.813429
2120.0 -143721.754645
2130.0 -143723.696841
2140.0 -143725.640014
2150.0 -143727.584157
2160.0 -143729.529267
2170.0 -143731.47534
2180.0 -143733.422371
2190.0 -143735.370355
2200.0 -143737.319288
2210.0 -143739.269166
2220.0 -143741.219984
2230.0 -143743.171739
2240.0 -143745.124426
2250.0 -143747.078041
2260.0 -143749.03258
2270.0 -143750.988038
2280.0 -143752.944412
2290.0 -143754.901698
2300.0 -143756.859892
2310.0 -143758.818989
2320.0 -143760.778986
2330.0 -143762.739879
2340.0 -143764.701664
2350.0 -143766.664338
2360.0 -143768.627896
2370.0 -143770.592335
2380.0 -143772.557651
2390.0 -143774.52384
2400.0 -143776.490899
2410.0 -143778.458824
2420.0 -143780.427611
2430.0 -143782.397258
2440.0 -143784.36776
2450.0 -143786.339113
2460.0 -143788.311316
2470.0 -143790.284363
2480.0 -143792.258251
2490.0 -143794.232978
2500.0 -143796.20854
2510.0 -143798.184933
2520.0 -143800.162154
2530.0 -143802.1402
2540.0 -143804.119068
2550.0 -143806.098754
2560.0 -143808.079255
2570.0 -143810.060568
2580.0 -143812.04269
2590.0 -143814.025618
2600.0 -143816.009348
2610.0 -143817.993877
2620.0 -143819.979203
2630.0 -143821.965323
2640.0 -143823.952233
2650.0 -143825.93993
2660.0 -143827.928411
2670.0 -143829.917674
2680.0 -143831.907715
2690.0 -143833.898532
2700.0 -143835.890122
2710.0 -143837.882482
2720.0 -143839.875608
2730.0 -143841.869499
2740.0 -143843.864151
2750.0 -143845.859562
2760.0 -143847.855729
2770.0 -143849.852649
2780.0 -143851.850319
2790.0 -143853.848737
2800.0 -143855.8479
2810.0 -143857.847805
2820.0 -143859.84845
2830.0 -143861.849832
2840.0 -143863.851949
2850.0 -143865.854798
2860.0 -143867.858375
2870.0 -143869.86268
2880.0 -143871.867709
2890.0 -143873.87346
2900.0 -143875.87993
2910.0 -143877.887116
2920.0 -143879.895017
2930.0 -143881.90363
2940.0 -143883.912952
2950.0 -143885.922982
2960.0 -143887.933716
2970.0 -143889.945152
2980.0 -143891.957288
2990.0 -143893.970121
3000.0 -143895.98365
3010.0 -143897.997872
3020.0 -143900.012784
3030.0 -143902.028384
3040.0 -143904.044671
