#temperature (K)# #Gibbs free energy (kJ / mol)#
100.0 -298921.36624
110.0 -298923.262149
120.0 -298925.188335
130.0 -298927.14227
140.0 -298929.121818
150.0 -298931.12515
160.0 -298933.150686
170.0 -298935.197046
180.0 -298937.263016
190.0 -298939.347523
200.0 -298941.449611
210.0 -298943.568426
220.0 -298945.703198
230.0 -298947.853235
240.0 -298950.017906
250.0 -298952.196639
260.0 -298954.388914
270.0 -298956.59425
280.0 -298958.812209
290.0 -298961.042385
300.0 -298963.284404
310.0 -298965.53792
320.0 -298967.80261
330.0 -298970.078173
340.0 -298972.364331
350.0 -298974.66082
360.0 -298976.967395
370.0 -298979.283826
380.0 -298981.609894
390.0 -298983.945395
400.0 -298986.290136
410.0 -298988.643933
420.0 -298991.006613
430.0 -298993.378012
440.0 -298995.757972
450.0 -298998.146345
460.0 -299000.542989
470.0 -299002.947768
480.0 -299005.360554
490.0 -299007.781221
500.0 -299010.209652
510.0 -299012.645732
520.0 -299015.089353
530.0 -299017.54041
540.0 -299019.998801
550.0 -299022.46443
560.0 -299024.937203
570.0 -299027.417029
580.0 -299029.903821
590.0 -299032.397495
600.0 -299034.89797
610.0 -299037.405166
620.0 -299039.919006
630.0 -299042.439417
640.0 -299044.966327
650.0 -299047.499665
660.0 -299050.039363
670.0 -299052.585356
680.0 -299055.137579
690.0 -299057.69597
700.0 -299060.260466
710.0 -299062.831009
720.0 -299065.407541
730.0 -299067.990005
740.0 -299070.578345
750.0 -299073.172507
760.0 -299075.772439
770.0 -299078.378088
780.0 -299080.989404
790.0 -299083.606338
800.0 -299086.22884
810.0 -299088.856862
820.0 -299091.490359
830.0 -299094.129285
840.0 -299096.773593
850.0 -299099.423241
860.0 -299102.078185
870.0 -299104.738383
880.0 -299107.403792
890.0 -299110.074371
900.0 -299112.750081
910.0 -299115.430881
920.0 -299118.116733
930.0 -299120.807597
940.0 -299123.503437
950.0 -299126.204214
960.0 -299128.909893
970.0 -299131.620437
980.0 -299134.33581
990.0 -299137.055978
1000.0 -299139.780906
1010.0 -299142.510561
1020.0 -299145.244908
1030.0 -299147.983914
1040.0 -299150.727548
1050.0 -299153.475776
1060.0 -299156.228567
1070.0 -299158.985891
1080.0 -299161.747715
1090.0 -299164.514011
1100.0 -299167.284747
1110.0 -299170.059894
1120.0 -299172.839422
1130.0 -299175.623304
1140.0 -299178.41151
1150.0 -299181.204013
1160.0 -299184.000784
1170.0 -299186.801796
1180.0 -299189.607021
1190.0 -299192.416435
1200.0 -299195.230009
1210.0 -299198.047717
1220.0 -299200.869534
1230.0 -299203.695435
1240.0 -299206.525394
1250.0 -299209.359386
1260.0 -299212.197386
1270.0 -299215.039371
1280.0 -299217.885316
1290.0 -299220.735198
1300.0 -299223.588992
1310.0 -299226.446676
1320.0 -299229.308227
1330.0 -299232.173623
1340.0 -299235.042839
1350.0 -299237.915856
1360.0 -299240.792649
1370.0 -299243.673199
1380.0 -299246.557483
1390.0 -299249.445479
1400.0 -299252.337168
1410.0 -299255.232529
1420.0 -299258.13154
1430.0 -299261.034181
1440.0 -299263.940433
1450.0 -299266.850275
1460.0 -299269.763688
1470.0 -299272.680653
1480.0 -299275.601149
1490.0 -299278.525158
1500.0 -299281.452662
1510.0 -299284.383641
1520.0 -299287.318076
1530.0 -299290.255951
1540.0 -299293.197246
1550.0 -299296.141944
1560.0 -299299.090026
1570.0 -299302.041476
1580.0 -299304.996276
1590.0 -299307.954409
1600.0 -299310.915858
1610.0 -299313.880606
1620.0 -299316.848636
1630.0 -299319.819932
1640.0 -299322.794477
1650.0 -299325.772256
1660.0 -299328.753252
1670.0 -299331.737449
1680.0 -299334.724832
1690.0 -299337.715385
1700.0 -299340.709093
1710.0 -299343.70594
1720.0 -299346.705912
1730.0 -299349.708993
1740.0 -299352.715169
1750.0 -299355.724424
1760.0 -299358.736745
1770.0 -299361.752117
1780.0 -299364.770526
1790.0 -299367.791957
1800.0 -299370.816397
1810.0 -299373.843832
1820.0 -299376.874248
1830.0 -299379.907631
1840.0 -299382.943968
1850.0 -299385.983245
1860.0 -299389.02545
1870.0 -299392.070569
1880.0 -299395.11859
1890.0 -299398.169499
1900.0 -299401.223283
1910.0 -299404.279931
1920.0 -299407.339428
1930.0 -299410.401764
1940.0 -299413.466926
1950.0 -299416.534901
1960.0 -299419.605678
1970.0 -299422.679244
1980.0 -299425.755588
1990.0 -299428.834698
2000.0 -299431.916562
2010.0 -299435.001168
2020.0 -299438.088506
2030.0 -299441.178564
2040.0 -299444.27133
2050.0 -299447.366793
2060.0 -299450.464943
2070.0 -299453.565768
2080.0 -299456.669258
2090.0 -299459.775401
2100.0 -299462.884187
2110.0 -299465.995606
2120.0 -299469.109646
2130.0 -299472.226298
2140.0 -299475.345551
2150.0 -299478.467395
2160.0 -299481.591819
2170.0 -299484.718814
2180.0 -299487.848369
2190.0 -299490.980475
2200.0 -299494.115121
2210.0 -299497.252299
2220.0 -299500.391997
2230.0 -299503.534208
2240.0 -299506.67892
2250.0 -299509.826126
2260.0 -299512.975814
2270.0 -299516.127977
2280.0 -299519.282604
2290.0 -299522.439686
2300.0 -299525.599216
2310.0 -299528.761182
2320.0 -299531.925577
2330.0 -299535.092392
2340.0 -299538.261617
2350.0 -299541.433245
2360.0 -299544.607266
2370.0 -299547.783671
2380.0 -299550.962453
2390.0 -299554.143602
2400.0 -299557.327111
2410.0 -299560.512971
2420.0 -299563.701173
2430.0 -299566.891709
2440.0 -299570.084572
2450.0 -299573.279753
2460.0 -299576.477244
2470.0 -299579.677037
2480.0 -299582.879124
2490.0 -299586.083497
2500.0 -299589.290149
2510.0 -299592.499071
2520.0 -299595.710256
2530.0 -299598.923696
2540.0 -299602.139384
2550.0 -299605.357312
2560.0 -299608.577472
2570.0 -299611.799858
2580.0 -299615.024461
2590.0 -299618.251275
2600.0 -299621.480292
2610.0 -299624.711504
2620.0 -299627.944906
2630.0 -299631.180488
2640.0 -299634.418245
2650.0 -299637.65817
2660.0 -299640.900255
2670.0 -299644.144493
2680.0 -299647.390878
2690.0 -299650.639402
2700.0 -299653.89006
2710.0 -299657.142843
2720.0 -299660.397746
2730.0 -299663.654761
2740.0 -299666.913882
2750.0 -299670.175103
2760.0 -299673.438416
2770.0 -299676.703816
2780.0 -299679.971296
2790.0 -299683.240849
2800.0 -299686.512469
2810.0 -299689.78615
2820.0 -299693.061886
2830.0 -299696.339669
2840.0 -299699.619495
2850.0 -299702.901356
2860.0 -299706.185246
2870.0 -299709.47116
2880.0 -299712.759092
2890.0 -299716.049035
2900.0 -299719.340983
2910.0 -299722.634931
2920.0 -299725.930872
2930.0 -299729.2288
2940.0 -299732.528711
2950.0 -299735.830597
2960.0 -299739.134453
2970.0 -299742.440274
2980.0 -299745.748053
2990.0 -299749.057785
3000.0 -299752.369465
3010.0 -299755.683086
3020.0 -299758.998643
3030.0 -299762.316131
3040.0 -299765.635544
