#temperature (K)# #Gibbs free energy (kJ / mol)#
100.0 -197159.849392
110.0 -197161.221376
120.0 -197162.614946
130.0 -197164.028262
140.0 -197165.459739
150.0 -197166.908001
160.0 -197168.371845
170.0 -197169.850218
180.0 -197171.342187
190.0 -197172.846926
200.0 -197174.363699
210.0 -197175.891843
220.0 -197177.430766
230.0 -197178.979929
240.0 -197180.538844
250.0 -197182.107066
260.0 -197183.68419
270.0 -197185.269842
280.0 -197186.863679
290.0 -197188.465384
300.0 -197190.074663
310.0 -197191.691244
320.0 -197193.314873
330.0 -197194.945313
340.0 -197196.582345
350.0 -197198.225759
360.0 -197199.875363
370.0 -197201.530972
380.0 -197203.192414
390.0 -197204.859528
400.0 -197206.532158
410.0 -197208.210159
420.0 -197209.893394
430.0 -197211.581731
440.0 -197213.275045
450.0 -197214.973218
460.0 -197216.676137
470.0 -197218.383694
480.0 -197220.095786
490.0 -197221.812314
500.0 -197223.533184
510.0 -197225.258305
520.0 -197226.987592
530.0 -197228.720961
540.0 -197230.458333
550.0 -197232.199629
560.0 -197233.944778
570.0 -197235.693706
580.0 -197237.446347
590.0 -197239.202634
600.0 -197240.962504
610.0 -197242.725894
620.0 -197244.492746
630.0 -197246.263002
640.0 -197248.036606
650.0 -197249.813506
660.0 -197251.593648
670.0 -197253.376983
680.0 -197255.163461
690.0 -197256.953036
700.0 -197258.745661
710.0 -197260.541293
720.0 -197262.339886
730.0 -197264.1414
740.0 -197265.945794
750.0 -197267.753028
760.0 -197269.563063
770.0 -197271.375862
780.0 -197273.191388
790.0 -197275.009606
800.0 -197276.83048
810.0 -197278.653978
820.0 -197280.480065
830.0 -197282.308711
840.0 -197284.139883
850.0 -197285.973551
860.0 -197287.809686
870.0 -197289.648257
880.0 -197291.489237
890.0 -197293.332598
900.0 -197295.178313
910.0 -197297.026355
920.0 -197298.876698
930.0 -197300.729317
940.0 -197302.584187
950.0 -197304.441283
960.0 -197306.300583
970.0 -197308.162063
980.0 -197310.0257
990.0 -197311.891471
1000.0 -197313.759355
1010.0 -197315.629331
1020.0 -197317.501378
1030.0 -197319.375474
1040.0 -197321.251601
1050.0 -197323.129738
1060.0 -197325.009865
1070.0 -197326.891965
1080.0 -197328.776017
1090.0 -197330.662005
1100.0 -197332.54991
1110.0 -197334.439714
1120.0 -197336.3314
1130.0 -197338.224952
1140.0 -197340.120352
1150.0 -197342.017584
1160.0 -197343.916632
1170.0 -197345.817481
1180.0 -197347.720114
1190.0 -197349.624517
1200.0 -197351.530674
1210.0 -197353.438571
1220.0 -197355.348194
1230.0 -197357.259527
1240.0 -197359.172558
1250.0 -197361.087271
1260.0 -197363.003654
1270.0 -197364.921694
1280.0 -197366.841376
1290.0 -197368.762689
1300.0 -197370.685619
1310.0 -197372.610154
1320.0 -197374.536282
1330.0 -197376.46399
1340.0 -197378.393267
1350.0 -197380.3241
1360.0 -197382.256479
1370.0 -197384.190391
1380.0 -197386.125825
1390.0 -197388.062771
1400.0 -197390.001217
1410.0 -197391.941152
1420.0 -197393.882567
1430.0 -197395.82545
1440.0 -197397.769791
1450.0 -197399.715579
1460.0 -197401.662806
1470.0 -197403.611461
1480.0 -197405.561534
1490.0 -197407.513015
1500.0 -197409.465896
1510.0 -197411.420166
1520.0 -197413.375817
1530.0 -197415.332839
1540.0 -197417.291223
1550.0 -197419.25096
1560.0 -197421.212042
1570.0 -197423.174461
1580.0 -197425.138206
1590.0 -197427.103271
1600.0 -197429.069646
1610.0 -197431.037323
1620.0 -197433.006295
1630.0 -197434.976553
1640.0 -197436.948089
1650.0 -197438.920896
1660.0 -197440.894965
1670.0 -197442.87029
1680.0 -197444.846862
1690.0 -197446.824674
1700.0 -197448.803719
1710.0 -197450.783989
1720.0 -197452.765477
1730.0 -197454.748177
1740.0 -197456.732081
1750.0 -197458.717182
1760.0 -197460.703473
1770.0 -197462.690947
1780.0 -197464.679599
1790.0 -197466.66942
1800.0 -197468.660405
1810.0 -197470.652547
1820.0 -197472.64584
1830.0 -197474.640277
1840.0 -197476.635852
1850.0 -197478.632559
1860.0 -197480.630392
1870.0 -197482.629344
1880.0 -197484.62941
1890.0 -197486.630584
1900.0 -197488.632859
1910.0 -197490.63623
1920.0 -197492.640692
1930.0 -197494.646238
1940.0 -197496.652863
1950.0 -197498.660561
1960.0 -197500.669327
1970.0 -197502.679155
1980.0 -197504.69004
1990.0 -197506.701976
2000.0 -197508.714959
2010.0 -197510.728983
2020.0 -197512.744043
2030.0 -197514.760133
2040.0 -197516.777249
2050.0 -197518.795385
2060.0 -197520.814537
2070.0 -197522.834699
2080.0 -197524.855867
2090.0 -197526.878036
2100.0 -197528.901201
2110.0 -197530.925357
2120.0 -197532.9505
2130.0 -197534.976625
2140.0 -197537.003727
2150.0 -197539.031801
2160.0 -197541.060844
2170.0 -197543.09085
2180.0 -197545.121816
2190.0 -197547.153736
2200.0 -197549.186607
2210.0 -197551.220424
2220.0 -197553.255183
2230.0 -197555.290879
2240.0 -197557.327509
2250.0 -197559.365067
2260.0 -197561.403551
2270.0 -197563.442956
2280.0 -197565.483277
2290.0 -197567.524511
2300.0 -197569.566654
2310.0 -197571.609702
2320.0 -197573.653651
2330.0 -197575.698497
2340.0 -197577.744236
2350.0 -197579.790865
2360.0 -197581.838379
2370.0 -197583.886774
2380.0 -197585.936048
2390.0 -197587.986196
2400.0 -197590.037215
2410.0 -197592.089101
2420.0 -197594.141851
2430.0 -197596.19546
2440.0 -197598.249926
2450.0 -197600.305244
2460.0 -197602.361412
2470.0 -197604.418426
2480.0 -197606.476282
2490.0 -197608.534977
2500.0 -197610.594508
2510.0 -197612.654871
2520.0 -197614.716063
2530.0 -197616.778081
2540.0 -197618.840921
2550.0 -197620.90458
2560.0 -197622.969055
2570.0 -197625.034344
2580.0 -197627.100441
2590.0 -197629.167345
2600.0 -197631.235053
2610.0 -197633.303561
2620.0 -197635.372865
2630.0 -197637.442964
2640.0 -197639.513855
2650.0 -197641.585533
2660.0 -197643.657996
2670.0 -197645.731241
2680.0 -197647.805266
2690.0 -197649.880067
2700.0 -197651.955641
2710.0 -197654.031986
2720.0 -197656.109099
2730.0 -197658.186976
2740.0 -197660.265616
2750.0 -197662.345015
2760.0 -197664.42517
2770.0 -197666.506079
2780.0 -197668.587739
2790.0 -197670.670148
2800.0 -197672.753302
2810.0 -197674.837199
2820.0 -197676.921836
2830.0 -197679.007211
2840.0 -197681.093322
2850.0 -197683.180164
2860.0 -197685.267737
2870.0 -197687.356037
2880.0 -197689.445062
2890.0 -197691.534809
2900.0 -197693.625276
2910.0 -197695.71646
2920.0 -197697.808359
2930.0 -197699.900971
2940.0 -197701.994292
2950.0 -197704.088321
2960.0 -197706.183055
2970.0 -197708.278492
2980.0 -197710.37463
2990.0 -197712.471465
3000.0 -197714.568996
3010.0 -197716.66722
3020.0 -197718.766136
3030.0 -197720.86574
3040.0 -197722.966031
