#temperature (K)# #Gibbs free energy (kJ / mol)#
100.0 -198865.607351
110.0 -198867.182316
120.0 -198868.785827
130.0 -198870.415685
140.0 -198872.069676
150.0 -198873.74596
160.0 -198875.443033
170.0 -198877.159427
180.0 -198878.894001
190.0 -198880.645646
200.0 -198882.413399
210.0 -198884.196429
220.0 -198885.993933
230.0 -198887.805241
240.0 -198889.629707
250.0 -198891.46675
260.0 -198893.315856
270.0 -198895.176527
280.0 -198897.048324
290.0 -198898.930823
300.0 -198900.823639
310.0 -198902.726419
320.0 -198904.638826
330.0 -198906.560551
340.0 -198908.491299
350.0 -198910.430795
360.0 -198912.378778
370.0 -198914.334996
380.0 -198916.299228
390.0 -198918.271256
400.0 -198920.25088
410.0 -198922.237917
420.0 -198924.232205
430.0 -198926.233541
440.0 -198928.241734
450.0 -198930.25662
460.0 -198932.278063
470.0 -198934.305922
480.0 -198936.340062
490.0 -198938.380354
500.0 -198940.426674
510.0 -198942.478905
520.0 -198944.536947
530.0 -198946.600657
540.0 -198948.669891
550.0 -198950.744546
560.0 -198952.824563
570.0 -198954.9099
580.0 -198957.000412
590.0 -198959.095976
600.0 -198961.196505
610.0 -198963.301956
620.0 -198965.412283
630.0 -198967.527394
640.0 -198969.647223
650.0 -198971.771688
660.0 -198973.900692
670.0 -198976.034116
680.0 -198978.171944
690.0 -198980.314142
700.0 -198982.460656
710.0 -198984.611417
720.0 -198986.766382
730.0 -198988.925459
740.0 -198991.088557
750.0 -198993.255621
760.0 -198995.426636
770.0 -198997.601569
780.0 -198999.780389
790.0 -199001.963085
800.0 -199004.149608
810.0 -199006.339877
820.0 -199008.533811
830.0 -199010.731383
840.0 -199012.93254
850.0 -199015.13725
860.0 -199017.3455
870.0 -199019.557285
880.0 -199021.772548
890.0 -199023.991262
900.0 -199026.213379
910.0 -199028.438836
920.0 -199030.66753
930.0 -199032.899512
940.0 -199035.134821
950.0 -199037.373422
960.0 -199039.615211
970.0 -199041.860054
980.0 -199044.10802
990.0 -199046.359144
1000.0 -199048.613403
1010.0 -199050.870722
1020.0 -199053.131008
1030.0 -199055.394314
1040.0 -199057.660696
1050.0 -199059.930115
1060.0 -199062.202446
1070.0 -199064.477513
1080.0 -199066.75544
1090.0 -199069.036291
1100.0 -199071.32006
1110.0 -199073.606667
1120.0 -199075.896056
1130.0 -199078.188217
1140.0 -199080.483119
1150.0 -199082.780748
1160.0 -199085.081109
1170.0 -199087.384228
1180.0 -199089.690034
1190.0 -199091.998471
1200.0 -199094.309517
1210.0 -199096.623186
1220.0 -199098.93951
1230.0 -199101.258416
1240.0 -199103.579852
1250.0 -199105.903796
1260.0 -199108.230266
1270.0 -199110.559261
1280.0 -199112.89078
1290.0 -199115.224849
1300.0 -199117.561441
1310.0 -199119.900475
1320.0 -199122.241838
1330.0 -199124.58561
1340.0 -199126.931835
1350.0 -199129.280506
1360.0 -199131.631561
1370.0 -199133.984952
1380.0 -199136.340677
1390.0 -199138.698713
1400.0 -199141.059052
1410.0 -199143.421706
1420.0 -199145.786692
1430.0 -199148.15398
1440.0 -199150.523564
1450.0 -199152.89542
1460.0 -199155.269508
1470.0 -199157.645766
1480.0 -199160.024226
1490.0 -199162.404903
1500.0 -199164.787791
1510.0 -199167.172867
1520.0 -199169.560119
1530.0 -199171.949532
1540.0 -199174.341095
1550.0 -199176.734795
1560.0 -199179.130617
1570.0 -199181.528536
1580.0 -199183.92857
1590.0 -199186.330752
1600.0 -199188.735059
1610.0 -199191.141419
1620.0 -199193.549742
1630.0 -199195.960077
1640.0 -199198.372431
1650.0 -199200.78681
1660.0 -199203.203219
1670.0 -199205.621679
1680.0 -199208.042164
1690.0 -199210.46468
1700.0 -199212.889199
1710.0 -199215.315659
1720.0 -199217.743957
1730.0 -199220.174176
1740.0 -199222.606355
1750.0 -199225.040502
1760.0 -199227.476589
1770.0 -199229.914608
1780.0 -199232.354547
1790.0 -199234.796414
1800.0 -199237.240181
1810.0 -199239.685789
1820.0 -199242.13312
1830.0 -199244.582291
1840.0 -199247.033375
1850.0 -199249.48638
1860.0 -199251.941247
1870.0 -199254.397949
1880.0 -199256.856461
1890.0 -199259.31674
1900.0 -199261.778778
1910.0 -199264.242599
1920.0 -199266.708227
1930.0 -199269.175638
1940.0 -199271.644823
1950.0 -199274.115774
1960.0 -199276.588483
1970.0 -199279.062942
1980.0 -199281.539141
1990.0 -199284.017082
2000.0 -199286.496748
2010.0 -199288.978107
2020.0 -199291.461077
2030.0 -199293.945757
2040.0 -199296.432245
2050.0 -199298.920527
2060.0 -199301.41047
2070.0 -199303.901903
2080.0 -199306.394967
2090.0 -199308.889729
2100.0 -199311.386204
2110.0 -199313.884362
2120.0 -199316.384223
2130.0 -199318.88572
2140.0 -199321.388788
2150.0 -199323.893413
2160.0 -199326.399629
2170.0 -199328.907444
2180.0 -199331.416869
2190.0 -199333.927927
2200.0 -199336.440613
2210.0 -199338.954888
2220.0 -199341.470715
2230.0 -199343.988101
2240.0 -199346.507032
2250.0 -199349.027509
2260.0 -199351.549551
2270.0 -199354.073194
2280.0 -199356.598388
2290.0 -199359.125103
2300.0 -199361.653326
2310.0 -199364.183057
2320.0 -199366.714277
2330.0 -199369.24701
2340.0 -199371.781281
2350.0 -199374.317084
2360.0 -199376.854383
2370.0 -199379.393139
2380.0 -199381.933364
2390.0 -199384.475041
2400.0 -199387.018175
2410.0 -199389.562783
2420.0 -199392.108888
2430.0 -199394.656471
2440.0 -199397.205542
2450.0 -199399.756079
2460.0 -199402.308031
2470.0 -199404.861306
2480.0 -199407.415985
2490.0 -199409.97211
2500.0 -199412.52969
2510.0 -199415.088704
2520.0 -199417.649161
2530.0 -199420.211026
2540.0 -199422.774263
2550.0 -199425.338868
2560.0 -199427.904865
2570.0 -199430.472279
2580.0 -199433.041091
2590.0 -199435.611312
2600.0 -199438.182921
2610.0 -199440.755867
2620.0 -199443.330035
2630.0 -199445.905561
2640.0 -199448.482563
2650.0 -199451.061034
2660.0 -199453.640848
2670.0 -199456.221862
2680.0 -199458.80418
2690.0 -199461.38785
2700.0 -199463.972876
2710.0 -199466.559214
2720.0 -199469.146807
2730.0 -199471.735718
2740.0 -199474.326011
2750.0 -199476.917673
2760.0 -199479.510618
2770.0 -199482.104706
2780.0 -199484.700083
2790.0 -199487.296887
2800.0 -199489.895089
2810.0 -199492.494501
2820.0 -199495.094833
2830.0 -199497.696367
2840.0 -199500.299253
2850.0 -199502.90354
2860.0 -199505.509169
2870.0 -199508.116137
2880.0 -199510.72444
2890.0 -199513.334146
2900.0 -199515.945178
2910.0 -199518.557313
2920.0 -199521.170018
2930.0 -199523.783966
2940.0 -199526.399806
2950.0 -199529.017457
2960.0 -199531.636119
2970.0 -199534.254593
2980.0 -199536.874074
2990.0 -199539.495209
3000.0 -199542.118209
3010.0 nan
3020.0 nan
3030.0 nan
3040.0 nan
